Data from Al_FLMS009871__880__16-17-03-125.txt Node

Date: Fri Mar 08 16:17:03 CST 2024
User: pe5414po
Spectrometer: FLMS00987
Trigger mode: 0
Integration Time (sec): 1.000000E-1
Scans to average: 1
Electric dark correction enabled: true
Nonlinearity correction enabled: false
Boxcar width: 0
XAxis mode: Wavelengths
Number of Pixels in Spectrum: 2048
>>>>>Begin Spectral Data<<<<<
188.938	-93.77
189.409	-93.77
189.879	-93.77
190.349	-46.96
190.819	-133.56
191.29	-98.45
191.76	-61
192.23	-70.36
192.7	-46.96
193.17	-70.36
193.64	-58.66
194.109	-7.17
194.579	-11.85
195.049	-28.23
195.519	44.32
195.988	27.94
196.458	-11.85
196.927	65.39
197.397	65.39
197.866	121.56
198.336	140.29
198.805	149.65
199.274	144.97
199.744	243.27
200.213	182.42
200.682	252.63
201.151	243.27
201.62	301.78
202.089	285.4
202.558	273.7
203.027	257.31
203.495	252.63
203.964	273.7
204.433	320.51
204.902	339.23
205.37	315.83
205.839	294.76
206.307	269.02
206.776	334.55
207.244	334.55
207.712	327.53
208.181	343.91
208.649	252.63
209.117	327.53
209.585	369.66
210.053	271.36
210.521	313.49
210.989	285.4
211.457	299.44
211.925	306.46
212.393	322.85
212.861	320.51
213.328	325.19
213.796	360.3
214.264	336.89
214.731	306.46
215.199	301.78
215.666	313.49
216.133	325.19
216.601	294.76
217.068	280.72
217.535	329.87
218.003	240.93
218.47	233.91
218.937	325.19
219.404	233.91
219.871	264.33
220.338	346.25
220.805	313.49
221.271	318.17
221.738	290.08
222.205	226.89
222.671	299.44
223.138	273.7
223.605	299.44
224.071	196.46
224.538	283.06
225.004	336.89
225.47	269.02
225.937	276.04
226.403	271.36
226.869	297.1
227.335	285.4
227.801	266.67
228.267	320.51
228.733	271.36
229.199	304.12
229.665	240.93
230.131	264.33
230.597	287.74
231.062	313.49
231.528	273.7
231.994	299.44
232.459	306.46
232.925	224.55
233.39	292.42
233.856	254.97
234.321	290.08
234.786	261.99
235.252	280.72
235.717	240.93
236.182	250.29
236.647	327.53
237.112	327.53
237.577	318.17
238.042	276.04
238.507	294.76
238.972	341.57
239.436	299.44
239.901	313.49
240.366	264.33
240.83	273.7
241.295	245.61
241.76	327.53
242.224	315.83
242.688	283.06
243.153	320.51
243.617	329.87
244.081	313.49
244.545	243.27
245.01	283.06
245.474	301.78
245.938	325.19
246.402	278.38
246.866	290.08
247.33	297.1
247.793	297.1
248.257	322.85
248.721	322.85
249.185	313.49
249.648	294.76
250.112	336.89
250.575	306.46
251.039	320.51
251.502	250.29
251.965	292.42
252.429	304.12
252.892	318.17
253.355	348.59
253.818	341.57
254.281	334.55
254.744	320.51
255.207	308.8
255.67	269.02
256.133	297.1
256.596	294.76
257.059	236.25
257.522	336.89
257.984	271.36
258.447	360.3
258.909	320.51
259.372	357.96
259.834	318.17
260.297	257.31
260.759	329.87
261.221	343.91
261.684	269.02
262.146	341.57
262.608	325.19
263.07	278.38
263.532	290.08
263.994	308.8
264.456	362.64
264.918	336.89
265.38	294.76
265.842	336.89
266.303	350.93
266.765	360.3
267.227	285.4
267.688	250.29
268.15	341.57
268.611	297.1
269.072	283.06
269.534	311.14
269.995	313.49
270.456	343.91
270.918	336.89
271.379	306.46
271.84	301.78
272.301	287.74
272.762	290.08
273.223	364.98
273.684	285.4
274.144	325.19
274.605	327.53
275.066	280.72
275.527	266.67
275.987	231.57
276.448	247.95
276.908	261.99
277.369	341.57
277.829	301.78
278.289	280.72
278.75	283.06
279.21	388.38
279.67	287.74
280.13	348.59
280.59	285.4
281.05	254.97
281.51	254.97
281.97	313.49
282.43	353.27
282.89	269.02
283.35	320.51
283.809	386.04
284.269	315.83
284.729	280.72
285.188	313.49
285.648	339.23
286.107	325.19
286.567	257.31
287.026	341.57
287.485	292.42
287.944	306.46
288.404	374.34
288.863	306.46
289.322	315.83
289.781	343.91
290.24	261.99
290.699	261.99
291.158	313.49
291.616	261.99
292.075	336.89
292.534	313.49
292.992	266.67
293.451	325.19
293.91	322.85
294.368	346.25
294.827	301.78
295.285	325.19
295.743	341.57
296.202	306.46
296.66	318.17
297.118	259.65
297.576	257.31
298.034	292.42
298.492	332.21
298.95	332.21
299.408	327.53
299.866	353.27
300.324	353.27
300.781	325.19
301.239	348.59
301.697	327.53
302.154	308.8
302.612	261.99
303.069	276.04
303.527	297.1
303.984	280.72
304.441	266.67
304.899	341.57
305.356	264.33
305.813	341.57
306.27	294.76
306.727	269.02
307.184	320.51
307.641	301.78
308.098	395.4
308.555	348.59
309.012	308.8
309.468	339.23
309.925	292.42
310.382	367.32
310.838	400.09
311.295	238.59
311.751	381.36
312.208	343.91
312.664	339.23
313.12	304.12
313.577	353.27
314.033	308.8
314.489	346.25
314.945	386.04
315.401	245.61
315.857	252.63
316.313	308.8
316.769	285.4
317.225	306.46
317.681	297.1
318.136	379.02
318.592	374.34
319.048	301.78
319.503	308.8
319.959	318.17
320.414	292.42
320.869	332.21
321.325	306.46
321.78	285.4
322.235	364.98
322.691	325.19
323.146	357.96
323.601	355.62
324.056	357.96
324.511	322.85
324.966	276.04
325.421	301.78
325.875	346.25
326.33	283.06
326.785	315.83
327.24	325.19
327.694	334.55
328.149	290.08
328.603	306.46
329.058	247.95
329.512	341.57
329.966	299.44
330.421	280.72
330.875	369.66
331.329	381.36
331.783	278.38
332.237	332.21
332.691	299.44
333.145	372
333.599	327.53
334.053	322.85
334.507	334.55
334.96	313.49
335.414	327.53
335.868	257.31
336.321	297.1
336.775	313.49
337.228	269.02
337.682	360.3
338.135	334.55
338.588	346.25
339.042	273.7
339.495	313.49
339.948	381.36
340.401	294.76
340.854	318.17
341.307	353.27
341.76	306.46
342.213	393.06
342.666	343.91
343.119	290.08
343.571	332.21
344.024	313.49
344.477	290.08
344.929	285.4
345.382	304.12
345.834	339.23
346.287	311.14
346.739	332.21
347.191	339.23
347.644	329.87
348.096	339.23
348.548	362.64
349	325.19
349.452	311.14
349.904	297.1
350.356	306.46
350.808	332.21
351.26	290.08
351.711	311.14
352.163	374.34
352.615	374.34
353.066	334.55
353.518	350.93
353.969	376.68
354.421	346.25
354.872	336.89
355.324	318.17
355.775	320.51
356.226	306.46
356.677	346.25
357.128	336.89
357.579	280.72
358.03	287.74
358.481	285.4
358.932	341.57
359.383	383.7
359.834	299.44
360.285	355.62
360.735	353.27
361.186	259.65
361.637	360.3
362.087	332.21
362.538	355.62
362.988	322.85
363.438	369.66
363.889	301.78
364.339	325.19
364.789	313.49
365.239	320.51
365.689	339.23
366.139	362.64
366.589	290.08
367.039	273.7
367.489	334.55
367.939	325.19
368.389	379.02
368.839	322.85
369.288	287.74
369.738	332.21
370.187	350.93
370.637	325.19
371.086	372
371.536	285.4
371.985	301.78
372.434	381.36
372.884	336.89
373.333	383.7
373.782	386.04
374.231	367.32
374.68	327.53
375.129	346.25
375.578	304.12
376.027	283.06
376.475	320.51
376.924	318.17
377.373	346.25
377.822	372
378.27	325.19
378.719	329.87
379.167	374.34
379.616	346.25
380.064	327.53
380.512	327.53
380.961	320.51
381.409	299.44
381.857	332.21
382.305	346.25
382.753	369.66
383.201	292.42
383.649	341.57
384.097	320.51
384.545	411.79
384.992	339.23
385.44	315.83
385.888	357.96
386.335	273.7
386.783	360.3
387.231	301.78
387.678	332.21
388.125	334.55
388.573	301.78
389.02	334.55
389.467	306.46
389.914	339.23
390.362	346.25
390.809	386.04
391.256	374.34
391.703	332.21
392.15	367.32
392.596	294.76
393.043	306.46
393.49	360.3
393.937	343.91
394.383	311.14
394.83	372
395.276	360.3
395.723	357.96
396.169	364.98
396.616	301.78
397.062	318.17
397.508	297.1
397.954	376.68
398.401	318.17
398.847	339.23
399.293	364.98
399.739	336.89
400.185	334.55
400.631	332.21
401.076	320.51
401.522	397.74
401.968	346.25
402.414	313.49
402.859	348.59
403.305	325.19
403.75	311.14
404.196	313.49
404.641	329.87
405.086	339.23
405.532	327.53
405.977	343.91
406.422	297.1
406.867	376.68
407.312	334.55
407.757	364.98
408.202	336.89
408.647	350.93
409.092	301.78
409.537	336.89
409.982	341.57
410.426	276.04
410.871	329.87
411.316	264.33
411.76	313.49
412.205	390.72
412.649	297.1
413.093	325.19
413.538	400.09
413.982	315.83
414.426	304.12
414.87	308.8
415.314	313.49
415.758	369.66
416.202	322.85
416.646	339.23
417.09	308.8
417.534	315.83
417.978	348.59
418.421	339.23
418.865	357.96
419.309	374.34
419.752	402.43
420.196	343.91
420.639	357.96
421.083	325.19
421.526	364.98
421.969	332.21
422.412	294.76
422.856	301.78
423.299	336.89
423.742	346.25
424.185	339.23
424.628	297.1
425.071	348.59
425.513	346.25
425.956	350.93
426.399	325.19
426.842	294.76
427.284	329.87
427.727	290.08
428.169	367.32
428.612	369.66
429.054	348.59
429.497	339.23
429.939	294.76
430.381	367.32
430.823	315.83
431.265	353.27
431.707	353.27
432.149	348.59
432.591	395.4
433.033	304.12
433.475	369.66
433.917	346.25
434.359	334.55
434.8	348.59
435.242	273.7
435.684	311.14
436.125	332.21
436.567	369.66
437.008	315.83
437.449	381.36
437.891	343.91
438.332	353.27
438.773	311.14
439.214	299.44
439.656	308.8
440.097	346.25
440.538	313.49
440.978	311.14
441.419	294.76
441.86	322.85
442.301	350.93
442.742	311.14
443.182	287.74
443.623	339.23
444.063	320.51
444.504	306.46
444.944	367.32
445.385	322.85
445.825	297.1
446.265	287.74
446.706	350.93
447.146	292.42
447.586	348.59
448.026	327.53
448.466	285.4
448.906	343.91
449.346	287.74
449.786	339.23
450.225	341.57
450.665	311.14
451.105	294.76
451.544	393.06
451.984	325.19
452.424	343.91
452.863	245.61
453.302	372
453.742	346.25
454.181	280.72
454.62	318.17
455.059	343.91
455.499	327.53
455.938	313.49
456.377	318.17
456.816	313.49
457.254	294.76
457.693	360.3
458.132	306.46
458.571	341.57
459.01	353.27
459.448	343.91
459.887	301.78
460.325	332.21
460.764	372
461.202	294.76
461.641	388.38
462.079	320.51
462.517	273.7
462.955	355.62
463.393	372
463.832	329.87
464.27	306.46
464.708	334.55
465.145	355.62
465.583	341.57
466.021	353.27
466.459	294.76
466.897	327.53
467.334	341.57
467.772	348.59
468.209	318.17
468.647	311.14
469.084	336.89
469.522	343.91
469.959	348.59
470.396	318.17
470.833	325.19
471.271	327.53
471.708	266.67
472.145	315.83
472.582	407.11
473.019	397.74
473.456	318.17
473.892	362.64
474.329	290.08
474.766	301.78
475.202	329.87
475.639	383.7
476.076	341.57
476.512	360.3
476.949	348.59
477.385	325.19
477.821	346.25
478.258	306.46
478.694	301.78
479.13	343.91
479.566	346.25
480.002	355.62
480.438	308.8
480.874	357.96
481.31	332.21
481.746	383.7
482.181	276.04
482.617	383.7
483.053	372
483.488	367.32
483.924	322.85
484.36	311.14
484.795	322.85
485.23	364.98
485.666	381.36
486.101	315.83
486.536	311.14
486.971	311.14
487.407	313.49
487.842	304.12
488.277	322.85
488.712	381.36
489.146	353.27
489.581	376.68
490.016	315.83
490.451	348.59
490.885	341.57
491.32	364.98
491.755	353.27
492.189	369.66
492.624	362.64
493.058	278.38
493.492	294.76
493.927	350.93
494.361	343.91
494.795	350.93
495.229	350.93
495.663	320.51
496.097	320.51
496.531	266.67
496.965	357.96
497.399	334.55
497.833	334.55
498.266	283.06
498.7	311.14
499.134	362.64
499.567	364.98
500.001	360.3
500.434	334.55
500.868	287.74
501.301	304.12
501.734	327.53
502.168	306.46
502.601	393.06
503.034	318.17
503.467	329.87
503.9	336.89
504.333	364.98
504.766	336.89
505.199	379.02
505.632	287.74
506.064	280.72
506.497	336.89
506.93	313.49
507.362	301.78
507.795	383.7
508.227	350.93
508.66	318.17
509.092	339.23
509.524	278.38
509.956	318.17
510.389	297.1
510.821	290.08
511.253	278.38
511.685	374.34
512.117	341.57
512.549	243.27
512.981	285.4
513.412	346.25
513.844	402.43
514.276	348.59
514.707	397.74
515.139	343.91
515.571	318.17
516.002	257.31
516.433	311.14
516.865	357.96
517.296	308.8
517.727	383.7
518.159	386.04
518.59	367.32
519.021	348.59
519.452	374.34
519.883	322.85
520.314	362.64
520.744	306.46
521.175	353.27
521.606	341.57
522.037	353.27
522.467	341.57
522.898	322.85
523.328	318.17
523.759	353.27
524.189	322.85
524.62	287.74
525.05	339.23
525.48	364.98
525.91	313.49
526.341	329.87
526.771	322.85
527.201	283.06
527.631	421.15
528.061	348.59
528.49	367.32
528.92	329.87
529.35	372
529.78	350.93
530.209	418.81
530.639	273.7
531.068	311.14
531.498	355.62
531.927	311.14
532.357	290.08
532.786	315.83
533.215	311.14
533.644	364.98
534.074	343.91
534.503	360.3
534.932	369.66
535.361	357.96
535.79	299.44
536.218	304.12
536.647	269.02
537.076	329.87
537.505	353.27
537.933	280.72
538.362	339.23
538.79	294.76
539.219	315.83
539.647	416.47
540.076	350.93
540.504	362.64
540.932	334.55
541.36	374.34
541.788	376.68
542.217	325.19
542.645	364.98
543.073	318.17
543.5	346.25
543.928	306.46
544.356	341.57
544.784	304.12
545.211	322.85
545.639	374.34
546.067	304.12
546.494	386.04
546.922	311.14
547.349	343.91
547.776	290.08
548.204	395.4
548.631	297.1
549.058	353.27
549.485	308.8
549.912	327.53
550.339	329.87
550.766	360.3
551.193	360.3
551.62	383.7
552.047	364.98
552.474	348.59
552.9	325.19
553.327	343.91
553.754	350.93
554.18	341.57
554.607	348.59
555.033	379.02
555.459	336.89
555.886	334.55
556.312	376.68
556.738	245.61
557.164	301.78
557.59	336.89
558.016	327.53
558.442	334.55
558.868	273.7
559.294	334.55
559.72	407.11
560.145	360.3
560.571	397.74
560.997	376.68
561.422	304.12
561.848	362.64
562.273	334.55
562.699	353.27
563.124	334.55
563.549	348.59
563.974	369.66
564.4	355.62
564.825	257.31
565.25	294.76
565.675	287.74
566.1	329.87
566.525	285.4
566.95	301.78
567.374	357.96
567.799	435.19
568.224	367.32
568.648	381.36
569.073	367.32
569.497	381.36
569.922	283.06
570.346	325.19
570.771	364.98
571.195	367.32
571.619	341.57
572.043	301.78
572.467	327.53
572.891	379.02
573.315	367.32
573.739	306.46
574.163	325.19
574.587	346.25
575.011	334.55
575.435	362.64
575.858	336.89
576.282	360.3
576.705	308.8
577.129	346.25
577.552	280.72
577.976	397.74
578.399	353.27
578.822	257.31
579.245	369.66
579.669	313.49
580.092	325.19
580.515	290.08
580.938	348.59
581.361	329.87
581.784	339.23
582.206	318.17
582.629	336.89
583.052	362.64
583.474	376.68
583.897	348.59
584.32	318.17
584.742	280.72
585.165	290.08
585.587	348.59
586.009	334.55
586.431	299.44
586.854	313.49
587.276	369.66
587.698	353.27
588.12	341.57
588.542	383.7
588.964	292.42
589.386	301.78
589.807	313.49
590.229	325.19
590.651	285.4
591.073	423.49
591.494	414.13
591.916	320.51
592.337	285.4
592.759	376.68
593.18	301.78
593.601	362.64
594.022	301.78
594.444	311.14
594.865	357.96
595.286	390.72
595.707	280.72
596.128	353.27
596.549	348.59
596.97	362.64
597.39	355.62
597.811	397.74
598.232	360.3
598.652	353.27
599.073	397.74
599.494	304.12
599.914	287.74
600.334	334.55
600.755	341.57
601.175	297.1
601.595	381.36
602.015	299.44
602.436	327.53
602.856	451.58
603.276	336.89
603.696	299.44
604.115	276.04
604.535	294.76
604.955	386.04
605.375	350.93
605.794	350.93
606.214	353.27
606.634	400.09
607.053	269.02
607.473	264.33
607.892	362.64
608.311	336.89
608.731	299.44
609.15	261.99
609.569	376.68
609.988	364.98
610.407	336.89
610.826	299.44
611.245	369.66
611.664	278.38
612.083	304.12
612.501	290.08
612.92	355.62
613.339	325.19
613.757	313.49
614.176	311.14
614.594	383.7
615.013	374.34
615.431	350.93
615.85	367.32
616.268	357.96
616.686	360.3
617.104	364.98
617.522	409.45
617.94	245.61
618.358	325.19
618.776	329.87
619.194	355.62
619.612	290.08
620.03	311.14
620.447	360.3
620.865	381.36
621.282	294.76
621.7	285.4
622.117	353.27
622.535	329.87
622.952	294.76
623.369	329.87
623.787	297.1
624.204	313.49
624.621	362.64
625.038	339.23
625.455	292.42
625.872	299.44
626.289	348.59
626.706	332.21
627.123	250.29
627.539	334.55
627.956	285.4
628.373	226.89
628.789	306.46
629.206	308.8
629.622	322.85
630.038	278.38
630.455	362.64
630.871	336.89
631.287	308.8
631.703	334.55
632.12	318.17
632.536	341.57
632.952	266.67
633.368	280.72
633.783	350.93
634.199	341.57
634.615	259.65
635.031	315.83
635.446	374.34
635.862	343.91
636.277	334.55
636.693	341.57
637.108	299.44
637.524	379.02
637.939	318.17
638.354	332.21
638.77	325.19
639.185	383.7
639.6	278.38
640.015	332.21
640.43	297.1
640.845	308.8
641.259	336.89
641.674	369.66
642.089	367.32
642.504	336.89
642.918	374.34
643.333	271.36
643.747	315.83
644.162	357.96
644.576	360.3
644.991	299.44
645.405	346.25
645.819	313.49
646.233	306.46
646.647	320.51
647.061	332.21
647.475	313.49
647.889	367.32
648.303	374.34
648.717	376.68
649.131	339.23
649.545	334.55
649.958	353.27
650.372	294.76
650.785	320.51
651.199	376.68
651.612	290.08
652.026	369.66
652.439	320.51
652.852	334.55
653.266	292.42
653.679	360.3
654.092	353.27
654.505	348.59
654.918	336.89
655.331	278.38
655.744	376.68
656.156	290.08
656.569	292.42
656.982	318.17
657.394	332.21
657.807	325.19
658.22	308.8
658.632	372
659.044	322.85
659.457	381.36
659.869	332.21
660.281	276.04
660.693	276.04
661.106	250.29
661.518	364.98
661.93	381.36
662.342	250.29
662.754	306.46
663.165	355.62
663.577	355.62
663.989	369.66
664.401	346.25
664.812	308.8
665.224	336.89
665.635	379.02
666.047	292.42
666.458	304.12
666.869	285.4
667.281	336.89
667.692	292.42
668.103	348.59
668.514	259.65
668.925	386.04
669.336	318.17
669.747	348.59
670.158	367.32
670.569	304.12
670.979	254.97
671.39	383.7
671.801	353.27
672.211	325.19
672.622	372
673.032	395.4
673.443	308.8
673.853	327.53
674.263	304.12
674.674	313.49
675.084	273.7
675.494	350.93
675.904	327.53
676.314	339.23
676.724	353.27
677.134	334.55
677.544	278.38
677.953	346.25
678.363	311.14
678.773	369.66
679.182	364.98
679.592	304.12
680.001	327.53
680.411	292.42
680.82	283.06
681.23	350.93
681.639	325.19
682.048	247.95
682.457	353.27
682.866	306.46
683.275	372
683.684	285.4
684.093	357.96
684.502	290.08
684.911	313.49
685.32	280.72
685.728	329.87
686.137	297.1
686.546	276.04
686.954	297.1
687.363	322.85
687.771	320.51
688.179	252.63
688.588	315.83
688.996	276.04
689.404	283.06
689.812	315.83
690.22	285.4
690.628	341.57
691.036	306.46
691.444	311.14
691.852	290.08
692.26	357.96
692.667	357.96
693.075	360.3
693.483	381.36
693.89	308.8
694.298	320.51
694.705	367.32
695.112	339.23
695.52	397.74
695.927	313.49
696.334	357.96
696.741	306.46
697.148	315.83
697.555	329.87
697.962	353.27
698.369	339.23
698.776	318.17
699.183	411.79
699.59	353.27
699.996	318.17
700.403	362.64
700.81	388.38
701.216	304.12
701.623	299.44
702.029	313.49
702.435	276.04
702.842	320.51
703.248	315.83
703.654	257.31
704.06	311.14
704.466	278.38
704.872	381.36
705.278	336.89
705.684	348.59
706.09	320.51
706.496	318.17
706.901	364.98
707.307	313.49
707.712	329.87
708.118	315.83
708.523	341.57
708.929	402.43
709.334	315.83
709.74	348.59
710.145	304.12
710.55	315.83
710.955	374.34
711.36	393.06
711.765	245.61
712.17	414.13
712.575	290.08
712.98	805
713.385	364.98
713.789	320.51
714.194	311.14
714.599	360.3
715.003	341.57
715.408	308.8
715.812	339.23
716.217	353.27
716.621	367.32
717.025	343.91
717.429	355.62
717.833	264.33
718.238	280.72
718.642	334.55
719.046	388.38
719.449	336.89
719.853	301.78
720.257	294.76
720.661	276.04
721.065	283.06
721.468	374.34
721.872	329.87
722.275	311.14
722.679	329.87
723.082	320.51
723.485	313.49
723.889	287.74
724.292	311.14
724.695	353.27
725.098	292.42
725.501	357.96
725.904	322.85
726.307	287.74
726.71	308.8
727.113	343.91
727.516	250.29
727.918	306.46
728.321	290.08
728.724	322.85
729.126	318.17
729.529	369.66
729.931	336.89
730.333	332.21
730.736	297.1
731.138	280.72
731.54	320.51
731.942	346.25
732.344	297.1
732.746	304.12
733.148	280.72
733.55	311.14
733.952	332.21
734.354	271.36
734.756	273.7
735.157	350.93
735.559	348.59
735.96	339.23
736.362	346.25
736.763	334.55
737.165	343.91
737.566	339.23
737.967	315.83
738.368	238.59
738.77	285.4
739.171	332.21
739.572	283.06
739.973	327.53
740.374	372
740.774	315.83
741.175	315.83
741.576	334.55
741.977	364.98
742.377	369.66
742.778	290.08
743.178	346.25
743.579	346.25
743.979	308.8
744.379	339.23
744.78	421.15
745.18	341.57
745.58	322.85
745.98	332.21
746.38	329.87
746.78	346.25
747.18	301.78
747.58	297.1
747.98	311.14
748.38	315.83
748.779	313.49
749.179	329.87
749.578	341.57
749.978	334.55
750.377	346.25
750.777	362.64
751.176	367.32
751.575	315.83
751.975	364.98
752.374	407.11
752.773	327.53
753.172	236.25
753.571	346.25
753.97	313.49
754.369	343.91
754.768	313.49
755.166	315.83
755.565	322.85
755.964	315.83
756.362	332.21
756.761	320.51
757.159	322.85
757.558	348.59
757.956	308.8
758.354	339.23
758.753	320.51
759.151	301.78
759.549	320.51
759.947	294.76
760.345	250.29
760.743	306.46
761.141	343.91
761.539	334.55
761.936	301.78
762.334	304.12
762.732	238.59
763.129	313.49
763.527	332.21
763.924	329.87
764.322	292.42
764.719	311.14
765.117	339.23
765.514	409.45
765.911	376.68
766.308	250.29
766.705	283.06
767.102	278.38
767.499	336.89
767.896	329.87
768.293	308.8
768.69	287.74
769.086	397.74
769.483	341.57
769.88	348.59
770.276	336.89
770.673	332.21
771.069	320.51
771.466	311.14
771.862	381.36
772.258	308.8
772.654	334.55
773.05	306.46
773.447	381.36
773.843	290.08
774.239	397.74
774.634	252.63
775.03	247.95
775.426	332.21
775.822	369.66
776.218	372
776.613	374.34
777.009	362.64
777.404	259.65
777.8	334.55
778.195	294.76
778.59	341.57
778.986	322.85
779.381	336.89
779.776	308.8
780.171	283.06
780.566	311.14
780.961	283.06
781.356	416.47
781.751	327.53
782.146	212.84
782.54	315.83
782.935	320.51
783.33	278.38
783.724	304.12
784.119	364.98
784.513	341.57
784.908	357.96
785.302	369.66
785.696	292.42
786.09	355.62
786.485	306.46
786.879	357.96
787.273	395.4
787.667	301.78
788.061	304.12
788.454	369.66
788.848	334.55
789.242	348.59
789.636	320.51
790.029	362.64
790.423	348.59
790.816	313.49
791.21	329.87
791.603	339.23
791.997	252.63
792.39	367.32
792.783	357.96
793.176	367.32
793.569	325.19
793.962	294.76
794.355	334.55
794.748	283.06
795.141	329.87
795.534	374.34
795.927	348.59
796.319	369.66
796.712	306.46
797.105	334.55
797.497	304.12
797.89	353.27
798.282	287.74
798.674	336.89
799.067	290.08
799.459	343.91
799.851	444.56
800.243	299.44
800.635	322.85
801.027	393.06
801.419	290.08
801.811	339.23
802.203	304.12
802.594	297.1
802.986	332.21
803.378	350.93
803.769	297.1
804.161	306.46
804.552	243.27
804.944	362.64
805.335	334.55
805.726	341.57
806.118	346.25
806.509	280.72
806.9	271.36
807.291	350.93
807.682	315.83
808.073	383.7
808.464	294.76
808.855	374.34
809.245	348.59
809.636	313.49
810.027	336.89
810.417	362.64
810.808	322.85
811.198	325.19
811.589	362.64
811.979	336.89
812.369	308.8
812.759	386.04
813.15	313.49
813.54	308.8
813.93	355.62
814.32	285.4
814.71	306.46
815.1	297.1
815.489	369.66
815.879	388.38
816.269	306.46
816.658	355.62
817.048	318.17
817.438	334.55
817.827	367.32
818.216	374.34
818.606	318.17
818.995	369.66
819.384	318.17
819.773	315.83
820.163	327.53
820.552	388.38
820.941	334.55
821.33	332.21
821.718	397.74
822.107	280.72
822.496	311.14
822.885	336.89
823.273	362.64
823.662	315.83
824.05	299.44
824.439	404.77
824.827	290.08
825.216	266.67
825.604	276.04
825.992	308.8
826.38	395.4
826.768	336.89
827.156	353.27
827.544	325.19
827.932	364.98
828.32	325.19
828.708	304.12
829.096	379.02
829.483	318.17
829.871	304.12
830.259	290.08
830.646	353.27
831.034	297.1
831.421	341.57
831.808	306.46
832.196	276.04
832.583	308.8
832.97	350.93
833.357	306.46
833.744	313.49
834.131	315.83
834.518	308.8
834.905	353.27
835.292	341.57
835.678	343.91
836.065	285.4
836.452	402.43
836.838	318.17
837.225	386.04
837.611	313.49
837.998	259.65
838.384	271.36
838.77	304.12
839.157	353.27
839.543	376.68
839.929	350.93
840.315	364.98
840.701	320.51
841.087	350.93
841.473	357.96
841.858	301.78
842.244	332.21
842.63	386.04
843.015	334.55
843.401	376.68
843.787	329.87
844.172	353.27
844.557	301.78
844.943	350.93
845.328	334.55
845.713	334.55
846.098	332.21
846.483	334.55
846.868	329.87
847.253	318.17
847.638	393.06
848.023	348.59
848.408	327.53
848.793	334.55
849.177	280.72
849.562	290.08
849.947	320.51
850.331	280.72
850.715	290.08
851.1	346.25
851.484	247.95
851.868	334.55
852.253	308.8
852.637	327.53
853.021	430.51
853.405	325.19
853.789	261.99
854.173	341.57
854.557	355.62
854.94	290.08
855.324	332.21
855.708	304.12
856.091	390.72
856.475	327.53
856.858	355.62
857.242	306.46
857.625	376.68
858.009	364.98
858.392	332.21
858.775	308.8
859.158	355.62
859.541	357.96
859.924	304.12
860.307	306.46
860.69	318.17
861.073	313.49
861.456	372
861.838	343.91
862.221	355.62
862.604	322.85
862.986	250.29
863.369	346.25
863.751	364.98
864.133	360.3
864.516	297.1
864.898	322.85
865.28	266.67
865.662	243.27
866.044	292.42
866.426	299.44
866.808	367.32
867.19	283.06
867.572	299.44
867.954	343.91
868.336	257.31
868.717	315.83
869.099	357.96
869.48	346.25
869.862	336.89
870.243	353.27
870.625	229.23
871.006	301.78
871.387	290.08
871.768	308.8
872.149	369.66
872.53	348.59
872.911	315.83
873.292	341.57
873.673	346.25
874.054	362.64
874.435	325.19
874.815	285.4
875.196	339.23
875.577	336.89
875.957	308.8
876.338	350.93
876.718	325.19
877.098	259.65
877.479	332.21
877.859	369.66
878.239	325.19
878.619	304.12
878.999	285.4
879.379	357.96
879.759	325.19
880.139	304.12
880.519	297.1
880.898	273.7
881.278	362.64
881.658	299.44
882.037	320.51
882.417	308.8
882.796	339.23
883.176	360.3
883.555	369.66
883.934	362.64
884.313	341.57
884.693	306.46
885.072	343.91
885.451	269.02
885.83	308.8
886.209	311.14
886.587	290.08
886.966	355.62
887.345	318.17
887.724	397.74
888.102	367.32
888.481	308.8
888.859	332.21
889.238	350.93
889.616	320.51
889.994	362.64
890.373	318.17
890.751	325.19
891.129	339.23
891.507	306.46
891.885	322.85
892.263	276.04
892.641	374.34
893.019	339.23
893.396	318.17
893.774	339.23
894.152	343.91
894.529	369.66
894.907	259.65
895.284	290.08
895.662	292.42
896.039	369.66
896.416	329.87
896.794	308.8
897.171	364.98
897.548	353.27
897.925	339.23
898.302	264.33
898.679	388.38
899.056	285.4
899.433	341.57
899.809	297.1
900.186	236.25
900.563	343.91
900.939	315.83
901.316	362.64
901.692	332.21
902.069	301.78
902.445	322.85
902.821	360.3
903.197	332.21
903.574	353.27
903.95	306.46
904.326	339.23
904.702	283.06
905.078	376.68
905.454	360.3
905.829	332.21
906.205	367.32
906.581	329.87
906.956	339.23
907.332	362.64
907.707	306.46
908.083	301.78
908.458	343.91
908.833	311.14
909.209	383.7
909.584	341.57
909.959	283.06
910.334	350.93
910.709	329.87
911.084	318.17
911.459	362.64
911.834	357.96
912.209	329.87
912.583	334.55
912.958	350.93
913.333	304.12
913.707	325.19
914.082	306.46
914.456	261.99
914.83	353.27
915.205	343.91
915.579	304.12
915.953	379.02
916.327	318.17
916.701	374.34
917.075	332.21
917.449	301.78
917.823	320.51
918.197	336.89
918.571	322.85
918.944	362.64
919.318	301.78
919.692	283.06
920.065	290.08
920.438	283.06
920.812	327.53
921.185	287.74
921.558	306.46
921.932	336.89
922.305	301.78
922.678	369.66
923.051	336.89
923.424	308.8
923.797	360.3
924.17	301.78
924.542	343.91
924.915	322.85
925.288	364.98
925.661	320.51
926.033	311.14
926.406	322.85
926.778	362.64
927.15	322.85
927.523	329.87
927.895	325.19
928.267	325.19
928.639	280.72
929.011	311.14
929.383	297.1
929.755	332.21
930.127	290.08
930.499	341.57
930.871	311.14
931.242	318.17
931.614	320.51
931.986	393.06
932.357	320.51
932.729	353.27
933.1	299.44
933.471	329.87
933.843	341.57
934.214	240.93
934.585	304.12
934.956	369.66
935.327	390.72
935.698	353.27
936.069	355.62
936.44	367.32
936.811	320.51
937.182	332.21
937.552	346.25
937.923	294.76
938.293	301.78
938.664	264.33
939.034	297.1
939.405	318.17
939.775	381.36
940.145	329.87
940.516	386.04
940.886	266.67
941.256	336.89
941.626	308.8
941.996	311.14
942.366	315.83
942.735	362.64
943.105	318.17
943.475	290.08
943.845	264.33
944.214	360.3
944.584	285.4
944.953	341.57
945.323	313.49
945.692	329.87
946.061	343.91
946.43	297.1
946.8	329.87
947.169	283.06
947.538	292.42
947.907	276.04
948.276	313.49
948.645	283.06
949.013	404.77
949.382	395.4
949.751	311.14
950.119	353.27
950.488	297.1
950.857	362.64
951.225	283.06
951.593	334.55
951.962	341.57
952.33	332.21
952.698	341.57
953.066	343.91
953.434	271.36
953.802	334.55
954.17	292.42
954.538	320.51
954.906	318.17
955.274	313.49
955.642	322.85
956.009	325.19
956.377	287.74
956.744	355.62
957.112	362.64
957.479	269.02
957.847	374.34
958.214	350.93
958.581	360.3
958.948	322.85
959.315	332.21
959.683	421.15
960.05	339.23
960.416	287.74
960.783	264.33
961.15	339.23
961.517	285.4
961.884	376.68
962.25	341.57
962.617	329.87
962.983	278.38
963.35	315.83
963.716	306.46
964.082	306.46
964.449	320.51
964.815	332.21
965.181	346.25
965.547	308.8
965.913	318.17
966.279	311.14
966.645	367.32
967.011	313.49
967.377	355.62
967.742	294.76
968.108	381.36
968.474	339.23
968.839	339.23
969.205	327.53
969.57	311.14
969.935	280.72
970.301	353.27
970.666	353.27
971.031	294.76
971.396	311.14
971.761	313.49
972.126	280.72
972.491	322.85
972.856	386.04
973.221	297.1
973.586	311.14
973.95	341.57
974.315	301.78
974.679	423.49
975.044	285.4
975.408	339.23
975.773	315.83
976.137	320.51
976.501	357.96
976.866	353.27
977.23	372
977.594	346.25
977.958	348.59
978.322	325.19
978.686	360.3
979.049	304.12
979.413	294.76
979.777	339.23
980.141	369.66
980.504	315.83
980.868	325.19
981.231	287.74
981.595	362.64
981.958	287.74
982.321	360.3
982.684	374.34
983.048	308.8
983.411	346.25
983.774	369.66
984.137	306.46
984.5	346.25
984.862	346.25
985.225	322.85
985.588	395.4
985.951	247.95
986.313	299.44
986.676	332.21
987.038	278.38
987.401	264.33
987.763	343.91
988.125	290.08
988.488	357.96
988.85	285.4
989.212	254.97
989.574	243.27
989.936	290.08
990.298	301.78
990.66	315.83
991.022	325.19
991.383	332.21
991.745	313.49
992.107	381.36
992.468	280.72
992.83	332.21
993.191	311.14
993.553	329.87
993.914	369.66
994.275	322.85
994.637	297.1
994.998	283.06
995.359	311.14
995.72	367.32
996.081	334.55
996.442	299.44
996.803	329.87
997.163	348.59
997.524	311.14
997.885	322.85
998.245	290.08
998.606	343.91
998.966	306.46
999.327	381.36
999.687	264.33
1000.047	327.53
1000.408	266.67
1000.768	299.44
1001.128	369.66
1001.488	320.51
1001.848	233.91
1002.208	334.55
1002.568	341.57
1002.927	325.19
1003.287	306.46
1003.647	350.93
1004.007	369.66
1004.366	339.23
1004.726	355.62
1005.085	369.66
1005.444	348.59
1005.804	306.46
1006.163	339.23
1006.522	294.76
1006.881	329.87
1007.24	325.19
1007.599	360.3
1007.958	343.91
1008.317	283.06
1008.676	339.23
1009.035	322.85
1009.393	297.1
1009.752	308.8
1010.111	339.23
1010.469	306.46
1010.828	297.1
1011.186	252.63
1011.544	299.44
1011.903	329.87
1012.261	322.85
1012.619	350.93
1012.977	327.53
1013.335	374.34
1013.693	325.19
1014.051	306.46
1014.409	315.83
1014.767	294.76
1015.124	332.21
1015.482	308.8
1015.84	313.49
1016.197	350.93
1016.555	325.19
1016.912	367.32
1017.269	276.04
1017.627	254.97
1017.984	306.46
1018.341	261.99
1018.698	334.55
1019.055	311.14
1019.412	259.65
1019.769	369.66
1020.126	304.12
1020.483	313.49
1020.84	348.59
1021.196	360.3
1021.553	339.23
1021.909	372
1022.266	343.91
1022.622	329.87
1022.979	320.51
1023.335	259.65
1023.691	318.17
1024.047	346.25
1024.404	381.36
1024.76	372
1025.116	299.44
1025.472	322.85
1025.827	397.74
1026.183	332.21
1026.539	304.12
1026.895	285.4
1027.25	325.19
1027.606	273.7
1027.961	372
1028.317	283.06
1028.672	325.19
1029.028	327.53
1029.383	362.64
1029.738	360.3
1030.093	348.59
1030.448	374.34
1030.803	313.49
1031.158	299.44
1031.513	301.78
1031.868	386.04
1032.223	336.89
1032.577	381.36
1032.932	243.27
1033.287	301.78
1033.641	320.51
1033.996	341.57
1034.35	383.7
1034.704	299.44
1035.059	357.96
1035.413	325.19
1035.767	325.19
1036.121	325.19
